#gpvdm
#title Refractive index
#type xy
#x_mul 1e9
#y_mul 1e9
#x_mul 1e9
#data_mul 1.0
#x_label Wavelength
#data_label Refractive index
#x_units nm
#data_units m^{-1}
#logscale_x 0
#logscale_y 0
#section_one Materials
#section_two Refractive index
#data
2.066e-07 1.224
2.1090000000000002e-07 1.233
2.1530000000000003e-07 1.247
2.1980000000000002e-07 1.265
2.2430000000000002e-07 1.29
2.2900000000000003e-07 1.319
2.337e-07 1.354
2.3860000000000003e-07 1.393
2.436e-07 1.435
2.486e-07 1.478
2.538e-07 1.522
2.5910000000000004e-07 1.564
2.645e-07 1.604
2.7e-07 1.64
2.7560000000000006e-07 1.67
2.813e-07 1.695
2.871e-07 1.714
2.9310000000000005e-07 1.726
2.9920000000000003e-07 1.732
3.054e-07 1.732
3.118e-07 1.728
3.1830000000000004e-07 1.719
3.249e-07 1.707
3.3160000000000003e-07 1.692
3.385e-07 1.677
3.456e-07 1.661
3.5280000000000004e-07 1.645
3.6010000000000005e-07 1.63
3.6760000000000004e-07 1.618
3.752e-07 1.607
3.8300000000000003e-07 1.598
3.9100000000000005e-07 1.592
3.9910000000000007e-07 1.589
4.074e-07 1.589
4.159e-07 1.591
4.245e-07 1.595
4.3330000000000005e-07 1.602
4.424e-07 1.611
4.5150000000000004e-07 1.623
4.609e-07 1.636
4.7050000000000004e-07 1.652
4.803000000000001e-07 1.669
4.903e-07 1.688
5.005e-07 1.708
5.109000000000001e-07 1.73
5.215e-07 1.753
5.323e-07 1.777
5.434000000000001e-07 1.803
5.547000000000001e-07 1.829
5.662000000000001e-07 1.856
5.78e-07 1.885
5.900000000000001e-07 1.914
6.023e-07 1.943
6.148e-07 1.974
6.276e-07 2.005
6.406000000000001e-07 2.037
6.54e-07 2.069
6.676000000000001e-07 2.101
6.814000000000001e-07 2.134
6.956000000000001e-07 2.168
7.101000000000001e-07 2.202
7.248e-07 2.236
7.399e-07 2.27
7.553e-07 2.305
7.71e-07 2.339
7.87e-07 2.374
8.034e-07 2.409
8.201000000000001e-07 2.444
8.371000000000001e-07 2.479
8.545e-07 2.515
8.723e-07 2.55
8.904000000000001e-07 2.585
9.089e-07 2.62
9.278e-07 2.655
9.471000000000001e-07 2.69
9.668e-07 2.724
9.869e-07 2.759
1.007e-06 2.793
1.0280000000000002e-06 2.828
1.0500000000000001e-06 2.862
1.072e-06 2.895
1.094e-06 2.929
1.117e-06 2.962
1.14e-06 2.995
1.1630000000000001e-06 3.027
1.188e-06 3.059
1.212e-06 3.091
1.238e-06 3.123
1.263e-06 3.154
1.2900000000000001e-06 3.184
1.316e-06 3.215
1.3440000000000002e-06 3.244
1.3720000000000002e-06 3.274
1.4000000000000001e-06 3.303
1.429e-06 3.331
1.4590000000000001e-06 3.359
1.489e-06 3.386
1.52e-06 3.413
1.5520000000000001e-06 3.439
1.584e-06 3.465
1.6170000000000001e-06 3.491
1.6510000000000002e-06 3.515
1.6850000000000002e-06 3.539
1.72e-06 3.563
1.7560000000000002e-06 3.586
1.7920000000000002e-06 3.608
1.83e-06 3.63
1.8680000000000002e-06 3.652
1.906e-06 3.672
1.946e-06 3.693
1.987e-06 3.712
2.0280000000000003e-06 3.731
2.07e-06 3.75
2.113e-06 3.768
2.1570000000000003e-06 3.785
2.2020000000000003e-06 3.802
2.2480000000000003e-06 3.818
2.294e-06 3.834
2.342e-06 3.849
2.391e-06 3.864
2.4400000000000004e-06 3.878
2.491e-06 3.892
2.543e-06 3.906
2.5960000000000002e-06 3.919
2.65e-06 3.931
2.7050000000000004e-06 3.943
2.7610000000000003e-06 3.955
2.819e-06 3.967
2.877e-06 3.978
2.937e-06 3.989
2.9980000000000003e-06 4.0
3.0600000000000003e-06 4.01
3.124e-06 4.02
3.1890000000000003e-06 4.031
3.255e-06 4.041
3.323e-06 4.051
3.3920000000000003e-06 4.061
3.462e-06 4.071
3.5340000000000004e-06 4.081
3.608e-06 4.091
3.683e-06 4.101
3.7590000000000003e-06 4.112
3.838e-06 4.123
3.917e-06 4.134
3.999e-06 4.145
4.082e-06 4.157
4.167e-06 4.169
4.253000000000001e-06 4.182
4.342e-06 4.195
4.432e-06 4.209
4.524e-06 4.224
4.6180000000000005e-06 4.239
4.714e-06 4.255
4.812000000000001e-06 4.272
4.9120000000000006e-06 4.29
5.015e-06 4.309
5.1190000000000005e-06 4.329
5.225e-06 4.35
5.334e-06 4.372
5.445e-06 4.396
5.558e-06 4.421
5.6730000000000006e-06 4.447
5.791e-06 4.475
5.912e-06 4.504
6.035000000000001e-06 4.535
6.16e-06 4.568
6.288000000000001e-06 4.603
6.419000000000001e-06 4.64
6.552e-06 4.679
6.689000000000001e-06 4.72
6.8280000000000005e-06 4.763
6.97e-06 4.808
7.1150000000000005e-06 4.856
7.262e-06 4.907
7.413000000000001e-06 4.961
7.568e-06 5.017
7.725e-06 5.076
7.885e-06 5.138
8.049e-06 5.204
8.217000000000001e-06 5.273
8.388e-06 5.345
8.562e-06 5.421
8.740000000000001e-06 5.501
8.922e-06 5.585
9.107000000000001e-06 5.673
9.296e-06 5.765
9.49e-06 5.862
9.687e-06 5.963
9.888000000000001e-06 6.069
1.009e-05 6.181
1.0300000000000001e-05 6.297
1.0520000000000001e-05 6.42
1.074e-05 6.547
1.096e-05 6.681
1.1190000000000001e-05 6.821
1.142e-05 6.967
1.166e-05 7.12
1.1900000000000001e-05 7.279
1.215e-05 7.446
1.2400000000000002e-05 7.62