#gpvdm
#title Absorption
#type xy
#x_mul 1e9
#y_mul 1e9
#x_mul 1e9
#data_mul 1.0
#x_label Wavelength
#data_label Absorption
#x_units nm
#data_units m^{-1}
#logscale_x 0
#logscale_y 0
#section_one Materials
#section_two Absorption
#data
2.7560000000000006e-07 20800000.0
2.7680000000000004e-07 21600000.0
2.7800000000000003e-07 21300000.0
2.793e-07 21300000.0
2.805e-07 21000000.0
2.8180000000000005e-07 21000000.0
2.8310000000000004e-07 20700000.0
2.844e-07 20400000.0
2.857e-07 20400000.0
2.87e-07 20100000.0
2.884e-07 19900000.0
2.897e-07 19500000.0
2.9110000000000006e-07 19500000.0
2.925e-07 19100000.0
2.9380000000000005e-07 18700000.0
2.952e-07 18600000.0
2.967e-07 18200000.0
2.9810000000000006e-07 17900000.0
2.995e-07 17800000.0
3.01e-07 17400000.0
3.024e-07 17100000.0
3.039e-07 16800000.0
3.054e-07 16400000.0
3.069e-07 16000000.0
3.0850000000000004e-07 15800000.0
3.1e-07 15500000.0
3.1160000000000006e-07 15000000.0
3.131e-07 14700000.0
3.1470000000000003e-07 14400000.0
3.1630000000000005e-07 14100000.0
3.179e-07 13600000.0
3.1960000000000003e-07 13300000.0
3.212e-07 13000000.0
3.229e-07 12600000.0
3.2460000000000003e-07 12200000.0
3.2630000000000006e-07 11900000.0
3.28e-07 11400000.0
3.2980000000000005e-07 11100000.0
3.3160000000000003e-07 10700000.0
3.3330000000000005e-07 10400000.0
3.3510000000000003e-07 9970000.0
3.37e-07 9530000.0
3.3880000000000004e-07 9220000.0
3.4070000000000003e-07 8870000.0
3.425e-07 8520000.0
3.444e-07 8220000.0
3.464e-07 7870000.0
3.483e-07 7560000.0
3.5030000000000006e-07 7260000.0
3.5230000000000005e-07 6960000.0
3.5430000000000004e-07 6620000.0
3.5630000000000003e-07 6260000.0
3.584e-07 6010000.0
3.6050000000000003e-07 5740000.0
3.6260000000000003e-07 5450000.0
3.6470000000000003e-07 5180000.0
3.669e-07 4970000.0
3.6900000000000004e-07 4710000.0
3.7130000000000005e-07 4420000.0
3.735e-07 4250000.0
3.758e-07 3830000.0
3.78e-07 3620000.0
3.804e-07 3390000.0
3.827e-07 3180000.0
3.8510000000000003e-07 2990000.0
3.8750000000000005e-07 2790000.0
3.899e-07 2620000.0
3.924e-07 2410000.0
3.949e-07 2250000.0
3.974e-07 2070000.0
4.0000000000000003e-07 1900000.0
4.0260000000000007e-07 1740000.0
4.052e-07 1600000.0
4.079e-07 1460000.0
4.1060000000000004e-07 1340000.0
4.1330000000000003e-07 1200000.0
4.1610000000000003e-07 1100000.0
4.189e-07 971000.0
4.2180000000000003e-07 881000.0
4.2470000000000004e-07 783000.0
4.2760000000000004e-07 693900.0
4.3060000000000006e-07 626900.0
4.3360000000000007e-07 549000.0
4.3660000000000003e-07 482900.0
4.397e-07 427000.0
4.4290000000000003e-07 368000.0
4.4600000000000005e-07 327100.0
4.4930000000000003e-07 283900.0
4.5260000000000007e-07 251000.0
4.559e-07 218000.0
4.5930000000000004e-07 186100.0
4.6270000000000003e-07 161900.0
4.6620000000000003e-07 142900.0
4.6970000000000003e-07 127100.0
4.7330000000000004e-07 112000.0
4.769e-07 99860.0
4.806e-07 89680.0
4.844e-07 80680.0
4.882e-07 75160.0
4.921e-07 66650.0
4.96e-07 64860.0
5.000000000000001e-07 62329.99999999999
5.041000000000001e-07 58590.0
5.082000000000001e-07 56129.99999999999
5.124000000000001e-07 52240.0
5.167000000000001e-07 51560.0
5.210000000000001e-07 49440.0
5.254e-07 48310.0
5.299e-07 47430.0
5.345e-07 47490.0
5.391000000000001e-07 46380.0
5.439e-07 45290.0
5.487e-07 44890.0
5.536000000000001e-07 44040.0
5.586e-07 44770.0
5.636000000000001e-07 44140.0
5.688e-07 44410.0
5.741e-07 44000.0
5.794e-07 44460.0
5.849e-07 45760.0
5.905e-07 45120.0
5.962000000000001e-07 44900.0
6.019e-07 45300.0
6.078e-07 46100.0
6.139000000000001e-07 46880.0
6.2e-07 46620.0
6.263e-07 46950.0
6.327000000000001e-07 47670.0
6.392000000000001e-07 48360.0
6.458e-07 48450.0
6.526000000000001e-07 48710.0
6.596000000000001e-07 49540.0
6.667000000000001e-07 50330.0
6.739e-07 51840.0
6.813e-07 51829.99999999999
6.889e-07 54910.0
6.966e-07 55020.00000000001
7.045000000000001e-07 56360.0
7.126000000000001e-07 56250.0
7.209000000000001e-07 59440.0
7.294000000000001e-07 61329.99999999999
7.381000000000001e-07 62650.0
7.47e-07 65440.0
7.561000000000001e-07 66980.0
7.654e-07 67640.0
7.750000000000001e-07 69890.0
7.848e-07 73660.0
7.949e-07 78260.0
8.052000000000001e-07 80060.0
8.158e-07 83340.0
8.267000000000001e-07 86950.0
8.378e-07 88640.0
8.493e-07 92620.0
8.611000000000001e-07 103000.0
8.732000000000001e-07 105100.0
8.857e-07 109000.0
8.986000000000001e-07 115900.0
9.118e-07 120000.0
9.254000000000001e-07 121900.0
9.394000000000001e-07 135000.0
9.538e-07 140000.0
9.688e-07 151000.0
9.841e-07 156000.0
1.0000000000000002e-06 161000.0
1.016e-06 172000.0
1.033e-06 182100.0
1.051e-06 197000.0
1.069e-06 205000.0
1.088e-06 222000.0
1.1070000000000002e-06 239900.0
1.127e-06 247000.0
1.148e-06 266900.0
1.17e-06 294000.0
1.192e-06 297000.0
1.216e-06 327000.0
1.24e-06 352000.0
1.2650000000000002e-06 372000.0
1.292e-06 402000.0
1.319e-06 421000.0
1.348e-06 457000.0
1.3780000000000002e-06 480000.0
1.4090000000000002e-06 524000.0
1.4420000000000001e-06 536000.0
1.4760000000000001e-06 584000.0
1.512e-06 613000.0
1.5500000000000002e-06 654000.0
1.59e-06 704000.0
1.632e-06 734000.0
1.6760000000000001e-06 777000.0
1.7220000000000002e-06 849000.0